E & capture cross section in a.u., standard deviation if available.
 Some of the numbers had to be read from figures, so may be imprecise.
 mu+H   PWB   G.Ya. Korenman & S.I. Rogovaya, J. Phys. B 13, 641 (1980)             
 0.3300  1.4137E+02
 0.6600  3.1102E+01
 0.9900  7.2257E+00
 1.3200  2.0106E+00
 1.6500  6.2832E-01
 1.9800  2.4819E-01
 2.6400  5.6549E-02
 3.3000  1.7907E-02
 6.6100  6.2832E-04
 pb+H   PWB   G.Ya. Korenman & S.I. Rogovaya, J. Phys. B 13, 641 (1980)             
 0.5510  2.0000E+02
 0.7350  8.0000E+01
 0.9190  3.0000E+01
 1.1030  1.2100E+01
 1.4700  2.8700E+00
 1.8400  9.4000E-01
 2.7600  1.2400E-01
 3.6800  2.9400E-02
 5.5100  3.9000E-03
 mu+He  PWB   G.Ya. Korenman & S.I. Rogovaya, Radiat.  Eff. 46, 189 (1980)          
 1.0720  6.7500E+00
 1.4290  3.9400E+00
 1.7870  2.2000E+00
 2.1440  1.2800E+00
 2.8590  6.0000E-01
 3.5740  2.4300E-01
 4.2880  1.2100E-01
 5.0030  6.7000E-02
 5.7180  4.0000E-02
 6.4330  2.5600E-02
 7.1470  1.7100E-02
 pb+He  PWB   G.Ya. Korenman & S.I. Rogovaya, Radiat.  Eff. 46, 189 (1980)          
 0.8810  3.2500E+01
 1.1750  1.9000E+01
 1.4680  1.1100E+01
 1.7620  6.7000E+00
 2.3490  3.1000E+00
 2.9360  1.5300E+00
 3.5240  7.3000E-01
 4.1110  3.9000E-01
 4.6980  2.2600E-01
 5.2860  1.4000E-01
 5.8730  9.1000E-02
 mu+H   DW-CB P.K. Haff & T.A. Tombrello, Ann. Phys. 86, 178 (1974)                 
 0.0330  2.7900E+02
 0.0525  2.1800E+02
 0.0829  1.7100E+02
 0.1320  1.2000E+02
 0.2090  9.2000E+01
 0.3300  4.7600E+01
 0.5220  1.4900E+01
 0.8290  3.2500E+00
 1.3150  5.4000E-01
 2.0850  1.1600E-01
 3.3040  1.1400E-02
 5.2200  1.3600E-03
 8.2930  1.8600E-04
13.1500  1.9000E-05
20.8500  2.6000E-06
 mu+He  DW-CB P.K. Haff & T.A. Tombrello, Ann. Phys. 86, 178 (1974)                 
 0.0357  4.8760E+02
 0.0568  3.5700E+02
 0.0897  2.0200E+02
 0.1422  1.1300E+02
 0.2254  6.3700E+01
 0.3572  3.5900E+01
 0.5644  2.0300E+01
 0.8966  1.1340E+01
 1.4217  5.9060E+00
 2.2541  2.1140E+00
 3.5722  3.5420E-01
 5.6441  5.7460E-02
 8.9663  1.0450E-02
14.2174  1.9370E-03
22.5407  3.0760E-04
35.7222  4.9460E-05
56.6196  4.9680E-06
 mu+He  DW-HF N.A. Cherepkov & L.V. Chernysheva, Sov. J. Nucl. Phys. 32, 366 (1980) 
 0.3675  2.4600E+01
 0.7350  1.2500E+01
 1.1025  4.5400E+00
 1.4700  1.6100E+00
 1.8376  3.6400E-01
 2.2051  1.0700E-01
 2.5726  3.7500E-02
 2.9401  1.5400E-02
 3.3076  6.9000E-03
 3.6751  3.3900E-03
 7.3502  3.1400E-05
 mu+H   AI-sltA.S. Wightman, Phys. Rev. 77, 521 (1950)                              
 0.0010  1.2827E+00
 0.5000  1.2827E+00
 0.5000  0.0000E+00
 pb+H   AI-sltA.S. Wightman, Phys. Rev. 77, 521 (1950)                              
 0.0010  1.2827E+00
 0.5000  1.2827E+00
 0.5000  0.0000E+00
 mu+H   AI-ct J.S. Cohen, Phys. Rev. A 27, 167 (1983)                               
 0.0010  2.9939E+02
 0.0011  2.8588E+02
 0.0012  2.7300E+02
 0.0013  2.6044E+02
 0.0014  2.4850E+02
 0.0016  2.3719E+02
 0.0017  2.2651E+02
 0.0019  2.1614E+02
 0.0021  2.0609E+02
 0.0023  1.9666E+02
 0.0025  1.8755E+02
 0.0027  1.7876E+02
 0.0030  1.7059E+02
 0.0033  1.6273E+02
 0.0036  1.5519E+02
 0.0040  1.4797E+02
 0.0044  1.4106E+02
 0.0048  1.3415E+02
 0.0052  1.2786E+02
 0.0058  1.2189E+02
 0.0063  1.1592E+02
 0.0069  1.1058E+02
 0.0076  1.0524E+02
 0.0083  1.0022E+02
 0.0091  9.5190E+01
 0.0100  9.0478E+01
 0.0110  8.6080E+01
 0.0120  8.1681E+01
 0.0132  7.7597E+01
 0.0145  7.3827E+01
 0.0158  7.0058E+01
 0.0174  6.6602E+01
 0.0191  6.3146E+01
 0.0209  5.9690E+01
 0.0229  5.6549E+01
 0.0251  5.3721E+01
 0.0275  5.0580E+01
 0.0302  4.6496E+01
 0.0331  4.2412E+01
 0.0363  3.8956E+01
 0.0398  3.5500E+01
 0.0437  3.2673E+01
 0.0479  2.9814E+01
 0.0525  2.7300E+01
 0.0575  2.5007E+01
 0.0631  2.2934E+01
 0.0692  2.1017E+01
 0.0759  1.9289E+01
 0.0832  1.7719E+01
 0.0912  1.6273E+01
 0.1000  1.4954E+01
 0.1100  1.3729E+01
 0.1200  1.2661E+01
 0.1320  1.1655E+01
 0.1450  1.0744E+01
 0.1580  9.8960E+00
 0.1740  9.1420E+00
 0.1910  8.4509E+00
 0.2090  7.8226E+00
 0.2290  7.2571E+00
 0.2510  6.7230E+00
 0.2750  6.2518E+00
 0.3020  5.8119E+00
 0.3310  5.4035E+00
 0.3630  5.0580E+00
 0.3980  4.7124E+00
 0.4370  4.3982E+00
 0.4790  4.1469E+00
 0.5000  4.0212E+00
 0.5000  0.0000E+00
 pb+H   AI-ct J.S. Cohen, Phys. Rev. A 27, 167 (1983)                               
 0.0010  2.9939E+02
 0.0011  2.8588E+02
 0.0012  2.7300E+02
 0.0013  2.6044E+02
 0.0014  2.4850E+02
 0.0016  2.3719E+02
 0.0017  2.2651E+02
 0.0019  2.1614E+02
 0.0021  2.0609E+02
 0.0023  1.9666E+02
 0.0025  1.8755E+02
 0.0027  1.7876E+02
 0.0030  1.7059E+02
 0.0033  1.6273E+02
 0.0036  1.5519E+02
 0.0040  1.4797E+02
 0.0044  1.4106E+02
 0.0048  1.3415E+02
 0.0052  1.2786E+02
 0.0058  1.2189E+02
 0.0063  1.1592E+02
 0.0069  1.1058E+02
 0.0076  1.0524E+02
 0.0083  1.0022E+02
 0.0091  9.5190E+01
 0.0100  9.0478E+01
 0.0110  8.6080E+01
 0.0120  8.1681E+01
 0.0132  7.7597E+01
 0.0145  7.3827E+01
 0.0158  7.0058E+01
 0.0174  6.6602E+01
 0.0191  6.3146E+01
 0.0209  5.9690E+01
 0.0229  5.6549E+01
 0.0251  5.3721E+01
 0.0275  5.0580E+01
 0.0302  4.6496E+01
 0.0331  4.2412E+01
 0.0363  3.8956E+01
 0.0398  3.5500E+01
 0.0437  3.2673E+01
 0.0479  2.9814E+01
 0.0525  2.7300E+01
 0.0575  2.5007E+01
 0.0631  2.2934E+01
 0.0692  2.1017E+01
 0.0759  1.9289E+01
 0.0832  1.7719E+01
 0.0912  1.6273E+01
 0.1000  1.4954E+01
 0.1100  1.3729E+01
 0.1200  1.2661E+01
 0.1320  1.1655E+01
 0.1450  1.0744E+01
 0.1580  9.8960E+00
 0.1740  9.1420E+00
 0.1910  8.4509E+00
 0.2090  7.8226E+00
 0.2290  7.2571E+00
 0.2510  6.7230E+00
 0.2750  6.2518E+00
 0.3020  5.8119E+00
 0.3310  5.4035E+00
 0.3630  5.0580E+00
 0.3980  4.7124E+00
 0.4370  4.3982E+00
 0.4790  4.1469E+00
 0.5000  4.0212E+00
 0.5000  0.0000E+00
 mu+H   DS    J.S. Cohen et al, Phys. Rev. A 24, 33 (1981)                          
 0.0050  1.3075E+02
 0.0100  9.0478E+01
 0.0150  7.1377E+01
 0.0200  5.6894E+01
 0.0400  3.3364E+01
 0.0600  2.4897E+01
 0.0800  2.0647E+01
 0.1000  1.8089E+01
 0.1200  1.6380E+01
 0.1400  1.5152E+01
 0.1600  1.4225E+01
 0.1800  1.3503E+01
 0.2000  1.2921E+01
 0.2200  1.2444E+01
 0.2400  1.2042E+01
 0.2600  1.1699E+01
 0.2800  1.1404E+01
 0.3000  1.1146E+01
 0.3200  1.0920E+01
 0.3400  1.0719E+01
 0.3600  1.0537E+01
 0.3800  1.0377E+01
 0.4000  1.0226E+01
 0.4200  1.0094E+01
 0.4400  9.9683E+00
 0.4600  9.8552E+00
 0.4800  9.7484E+00
 0.5000  9.6510E+00
 0.5050  8.7776E+00
 0.5100  8.0048E+00
 0.5150  7.3073E+00
 0.5200  6.6822E+00
 0.5250  6.1198E+00
 0.5300  5.6172E+00
 0.5350  5.1585E+00
 0.5400  4.7438E+00
 0.5450  4.3668E+00
 0.5500  4.0212E+00
 0.5550  3.7102E+00
 0.5600  3.4243E+00
 0.5650  3.1636E+00
 0.5700  2.9236E+00
 0.5750  2.7030E+00
 0.5800  2.5013E+00
 0.5850  2.3166E+00
 0.5900  2.1457E+00
 0.5950  1.9874E+00
 0.6000  1.8422E+00
 0.6200  1.3666E+00
 0.6400  1.0169E+00
 0.6600  7.5398E-01
 0.6800  5.5638E-01
 0.7000  4.0966E-01
 0.7200  3.0100E-01
 0.7400  2.2409E-01
 0.7600  1.6830E-01
 0.7800  1.2346E-01
 0.8000  8.6991E-02
 0.8200  6.0067E-02
 0.8400  4.0307E-02
 0.8600  2.5315E-02
 0.8800  1.3905E-02
 0.9000  4.5867E-03
 0.9200  0.0000E+00
 0.9400  0.0000E+00
 0.9600  0.0000E+00
 0.9800  0.0000E+00
 1.0000  0.0000E+00
 pb+H   DS    J.S. Cohen et al, Phys. Rev. A 24, 33 (1981)                          
 0.0050  1.3078E+02
 0.0100  9.0509E+01
 0.0150  7.1377E+01
 0.0200  5.6894E+01
 0.0400  3.3364E+01
 0.0600  2.4900E+01
 0.0800  2.0669E+01
 0.1000  1.8127E+01
 0.1200  1.6431E+01
 0.1400  1.5218E+01
 0.1600  1.4307E+01
 0.1800  1.3597E+01
 0.2000  1.3028E+01
 0.2200  1.2563E+01
 0.2400  1.2174E+01
 0.2600  1.1844E+01
 0.2800  1.1561E+01
 0.3000  1.1313E+01
 0.3200  1.1099E+01
 0.3400  1.0908E+01
 0.3600  1.0738E+01
 0.3800  1.0584E+01
 0.4000  1.0446E+01
 0.4200  1.0323E+01
 0.4400  1.0207E+01
 0.4600  1.0103E+01
 0.4800  1.0009E+01
 0.5000  9.9180E+00
 0.5050  8.2561E+00
 0.5100  6.9398E+00
 0.5150  5.8591E+00
 0.5200  4.9700E+00
 0.5250  4.2317E+00
 0.5300  3.6191E+00
 0.5350  3.1042E+00
 0.5400  2.6694E+00
 0.5450  2.3006E+00
 0.5500  1.9871E+00
 0.5550  1.7197E+00
 0.5600  1.4907E+00
 0.5650  1.2937E+00
 0.5700  1.1244E+00
 0.5750  9.7829E-01
 0.5800  8.5231E-01
 0.5850  7.4361E-01
 0.5900  6.4905E-01
 0.5950  5.6706E-01
 0.6000  4.9606E-01
 0.6200  2.9305E-01
 0.6400  1.7448E-01
 0.6600  1.0333E-01
 0.6800  6.0821E-02
 0.7000  3.5688E-02
 0.7200  2.1020E-02
 0.7400  1.2808E-02
 0.7600  8.0142E-03
 0.7800  4.8789E-03
 0.8000  2.8365E-03
 0.8200  1.6606E-03
 0.8400  9.8112E-04
 0.8600  5.6643E-04
 0.8800  3.0203E-04
 0.9000  1.0524E-04
 0.9200  0.0000E+00
 0.9400  0.0000E+00
 0.9600  0.0000E+00
 0.9800  0.0000E+00
 1.0000  0.0000E+00
 mu+He  DS    J.S. Cohen et al, Phys. Rev. A 27, 1821 (1983)                        
 0.0050  5.9816E+01
 0.0100  3.3835E+01
 0.0150  2.5852E+01
 0.0200  2.1083E+01
 0.0400  1.4216E+01
 0.0600  1.1734E+01
 0.0800  1.0358E+01
 0.1000  9.3651E+00
 0.1200  8.5483E+00
 0.1400  7.8917E+00
 0.1600  7.3168E+00
 0.1800  6.8173E+00
 0.2000  6.4246E+00
 0.2200  6.1010E+00
 0.2400  5.8277E+00
 0.2600  5.5952E+00
 0.2800  5.3973E+00
 0.3000  5.2213E+00
 0.3200  5.0674E+00
 0.3400  4.9323E+00
 0.3600  4.8098E+00
 0.3800  4.6998E+00
 0.4000  4.6024E+00
 0.4200  4.5113E+00
 0.4400  4.4265E+00
 0.4600  4.3511E+00
 0.4800  4.2820E+00
 0.5000  4.2160E+00
 0.5200  4.1563E+00
 0.5400  4.0998E+00
 0.5600  4.0464E+00
 0.5800  3.9961E+00
 0.6000  3.9490E+00
 0.6200  3.9050E+00
 0.6400  3.8642E+00
 0.6600  3.8265E+00
 0.6800  3.7888E+00
 0.7000  3.7542E+00
 0.7200  3.7196E+00
 0.7400  3.6882E+00
 0.7600  3.6568E+00
 0.7800  3.6285E+00
 0.8000  3.6003E+00
 0.8200  3.5720E+00
 0.8400  3.5469E+00
 0.8600  3.5249E+00
 0.8800  3.4997E+00
 0.9000  3.4777E+00
 0.9200  3.1699E+00
 0.9400  2.8428E+00
 0.9600  2.5547E+00
 0.9800  2.2927E+00
 1.0000  2.0515E+00
 1.0200  1.8290E+00
 1.0400  1.6258E+00
 1.0600  1.4417E+00
 1.0800  1.2771E+00
 1.1000  1.1303E+00
 1.1200  9.9997E-01
 1.1400  8.8404E-01
 1.1600  7.8069E-01
 1.1800  6.8769E-01
 1.2000  6.0413E-01
 1.2200  5.2873E-01
 1.2400  4.6087E-01
 1.2600  4.0024E-01
 1.2800  3.4683E-01
 1.3000  3.0002E-01
 1.4000  1.4476E-01
 1.5000  6.3806E-02
 1.6000  1.9088E-02
 1.7000  0.0000E+00
 1.8000  0.0000E+00
 1.9000  0.0000E+00
 2.0000  0.0000E+00
 pb+He  DS    J.S. Cohen et al, Phys. Rev. A 27, 1821 (1983)                        
 0.0050  5.9847E+01
 0.0100  3.3835E+01
 0.0150  2.5852E+01
 0.0200  2.1086E+01
 0.0400  1.4216E+01
 0.0600  1.1734E+01
 0.0800  1.0358E+01
 0.1000  9.3682E+00
 0.1200  8.5514E+00
 0.1400  7.8917E+00
 0.1600  7.3136E+00
 0.1800  6.8204E+00
 0.2000  6.4277E+00
 0.2200  6.1073E+00
 0.2400  5.8402E+00
 0.2600  5.6109E+00
 0.2800  5.4192E+00
 0.3000  5.2496E+00
 0.3200  5.1019E+00
 0.3400  4.9700E+00
 0.3600  4.8538E+00
 0.3800  4.7501E+00
 0.4000  4.6558E+00
 0.4200  4.5710E+00
 0.4400  4.4925E+00
 0.4600  4.4202E+00
 0.4800  4.3574E+00
 0.5000  4.2946E+00
 0.5200  4.2412E+00
 0.5400  4.1877E+00
 0.5600  4.1406E+00
 0.5800  4.0966E+00
 0.6000  4.0527E+00
 0.6200  4.0150E+00
 0.6400  3.9773E+00
 0.6600  3.9427E+00
 0.6800  3.9081E+00
 0.7000  3.8799E+00
 0.7200  3.8485E+00
 0.7400  3.8202E+00
 0.7600  3.7950E+00
 0.7800  3.7699E+00
 0.8000  3.7448E+00
 0.8200  3.7228E+00
 0.8400  3.7008E+00
 0.8600  3.6788E+00
 0.8800  3.6600E+00
 0.9000  3.6411E+00
 0.9200  2.9792E+00
 0.9400  2.3684E+00
 0.9600  1.8969E+00
 0.9800  1.5171E+00
 1.0000  1.2064E+00
 1.0200  9.5285E-01
 1.0400  7.4801E-01
 1.0600  5.8465E-01
 1.0800  4.5553E-01
 1.1000  3.5469E-01
 1.1200  2.7605E-01
 1.1400  2.1445E-01
 1.1600  1.6610E-01
 1.1800  1.2805E-01
 1.2000  9.8081E-02
 1.2200  7.4519E-02
 1.2400  5.6140E-02
 1.2600  4.1972E-02
 1.2800  3.1253E-02
 1.3000  2.3223E-02
 1.4000  5.3973E-03
 1.5000  1.2032E-03
 1.6000  2.2299E-04
 1.7000  0.0000E+00
 1.8000  0.0000E+00
 1.9000  0.0000E+00
 2.0000  0.0000E+00
 mu+He  CCSA  V.K. Dolinov, G.Ya. Korenman et al, Muon Catal. Fusion 4, 169 (1989)  
 0.0226  1.6900E+01
 0.0402  1.4000E+01
 0.0628  1.1400E+01
 0.0905  9.8400E+00
 0.1610  7.3500E+00
 0.2510  5.9000E+00
 0.3620  4.8000E+00
 0.4930  4.2000E+00
 0.6440  3.8400E+00
 0.8140  3.5800E+00
 0.9000  3.5000E+00
 0.9100  2.9900E+00
 0.9200  2.5100E+00
 0.9400  1.7600E+00
 0.9600  1.2400E+00
 0.9800  8.7000E-01
 1.0000  6.1000E-01
 1.0200  4.3000E-01
 1.0400  3.0300E-01
 1.0600  2.1300E-01
 1.1000  1.0600E-01
 1.1500  4.4000E-02
 1.2000  1.8000E-02
 1.3000  3.1000E-03
 pb+He  CCSA  V.K. Dolinov, G.Ya. Korenman et al, Muon Catal. Fusion 4, 169 (1989)  
 0.1650  6.3000E+00
 0.2930  5.2000E+00
 0.4580  4.2000E+00
 0.7000  3.6500E+00
 0.7500  3.6000E+00
 0.8000  3.5400E+00
 0.8500  3.4900E+00
 0.8800  3.4560E+00
 0.8900  3.4450E+00
 0.9040  3.4300E+00
 0.9060  3.1500E+00
 0.9100  2.6700E+00
 0.9200  1.7500E+00
 0.9500  5.0000E-01
 1.0000  6.0000E-02
 1.0500  8.0000E-03
 1.1000  9.0000E-04
 pb+He  AHC   J.S. Briggs et al, J. Phys. B 32, 197 (1999)                          
 0.0100  6.8000E+01
 0.0200  3.4000E+01
 0.0400  1.7000E+01
 0.0600  1.1330E+01
 0.0800  8.5000E+00
 0.1000  6.8000E+00
 0.2000  3.6000E+00
 0.4000  2.1400E+00
 0.6000  1.6400E+00
 0.8000  1.3800E+00
 1.0000  1.2700E+00
 mu+H   CTMC  J.S. Cohen, Phys. Rev. A 27, 167 (1983)                               
 0.0330  3.0191E+01  5.9690E-01
 0.1000  1.6054E+01  4.3982E-01
 0.2000  1.1687E+01  1.2566E-01
 0.3000  1.0242E+01  1.2566E-01
 0.4000  9.2049E+00  1.2566E-01
 0.5000  8.3566E+00  1.2566E-01
 0.5500  6.0004E+00  1.2566E-01
 0.6000  2.8903E+00  1.2566E-01
 0.7000  4.0212E-01  5.3407E-02
 0.8000  1.7593E-01  3.4558E-02
 1.0000  2.1363E-02  1.2566E-02
 1.2000  7.2257E-03  6.9115E-03
 pb+H   CTMC  J.S. Cohen, Phys. Rev. A 36, 2024 (1987)                              
 0.0500  2.4713E+01  9.2851E-01
 0.1000  1.6392E+01  6.0710E-01
 0.2000  1.1499E+01  5.3568E-01
 0.3000  9.8564E+00  6.0710E-01
 0.4000  8.9994E+00  4.2854E-01
 0.5000  8.2494E+00  3.5712E-01
 0.5500  3.1069E+00  2.1427E-01
 0.6000  5.7139E-01  1.0714E-01
 0.7000  1.0714E-01  3.5712E-02
 pb+H-  CTMC  J.S. Cohen, Phys. Rev. A 36, 2024 (1987)                              
 0.1000  1.4285E-01  1.4285E-01
 0.2000  5.8924E+00  6.4281E-01
 0.3000  6.3567E+00  4.6425E-01
 0.4000  6.6067E+00  4.9996E-01
 0.5000  6.5710E+00  3.9283E-01
 0.5500  6.1781E+00  4.6425E-01
 0.6000  6.1067E+00  4.6425E-01
 0.7000  5.0354E+00  4.2854E-01
 0.8000  1.1428E+00  2.4998E-01
 0.9000  1.7856E-01  1.0714E-01
 mu+H   TDHF  J.D. Garcia, N.H. Kwong & J.S. Cohen, Phys. Rev. A 35, 4068 (1987)    
 0.0100  2.8274E+01
 0.1000  6.2832E+00
 mu+H   CQC   N.H. Kwong, J.D. Garcia & J.S. Cohen, J. Phys. B 22, L633 (1989)      
 0.0330  4.4642E+01
 0.1000  2.0766E+01
 0.1652  1.4671E+01
 0.2000  1.2064E+01
 0.3303  9.0478E+00
 0.4000  6.4403E+00
 0.4955  2.7960E+00
 0.6610  9.7389E-01
 pb+H   SC-DVRK. Sakimoto, J. Phys. B 34, 1769 (2001)                               
 0.0735  2.7000E+01
 0.0919  2.2900E+01
 0.1103  1.9200E+01
 0.1286  1.7400E+01
 0.1470  1.5600E+01
 0.1838  1.3500E+01
 0.2205  1.2100E+01
 0.2500  1.1100E+01
 0.2940  1.0100E+01
 0.3308  9.4000E+00
 0.3675  8.8000E+00
 mu+H   SC-DVRK. Sakimoto, Phys. Rev. A 66, 032506 (2002)                           
 0.0184  5.6900E+01
 0.0368  3.9000E+01
 0.0735  2.2600E+01
 0.1838  1.1900E+01
 0.3675  8.5000E+00
 mu+H   FMD   J.S. Cohen, J. Phys. B 31, L833 (1998)                                
 0.0300  5.4990E+01  4.3000E-01
 0.1000  2.0410E+01  4.0000E-01
 0.2000  1.1970E+01  1.2000E-01
 0.3000  9.0000E+00  1.1000E-02
 0.4000  7.6000E+00  1.0000E-01
 0.5000  6.5900E+00  1.1000E-01
 0.5500  4.7900E+00  1.2000E-01
 0.6000  2.2900E+00  1.0000E-01
 0.7000  1.8000E-01  4.0000E-02
 0.8000  3.0000E-02  2.0000E-02
 pb+H   FMD   J.S. Cohen, Phys. Rev. A 56, 3583 (1997)                              
 0.0100  1.6321E+02  5.0600E+00
 0.1000  1.9000E+01  4.2000E-01
 0.2000  1.0640E+01  1.2000E-01
 0.3000  8.0400E+00  1.0000E-01
 0.4000  6.5600E+00  1.0000E-01
 0.5000  5.5100E+00  1.0000E-01
 0.5500  2.5600E+00  1.1000E-01
 0.6000  2.1000E-01  4.0000E-02
 0.7000  1.0000E-02  1.0000E-02
 mu+He  FMD   J.S. Cohen, Phys. Rev. A 62, 022512 (2000)                            
 0.0100  7.2310E+01  1.1700E+00
 0.1000  1.8980E+01  2.8000E-01
 0.2000  1.0420E+01  1.3000E-01
 0.3000  7.5900E+00  1.2000E-01
 0.4000  6.0500E+00  8.0000E-02
 0.5000  5.1300E+00  7.0000E-02
 0.6000  4.5400E+00  7.0000E-02
 0.7000  4.1200E+00  7.0000E-02
 0.8000  3.8000E+00  6.0000E-02
 0.9000  3.5900E+00  6.0000E-02
 1.0000  3.4100E+00  5.0000E-02
 1.1000  2.9100E+00  6.0000E-02
 1.2000  2.0200E+00  7.0000E-02
 1.5000  1.0200E+00  7.0000E-02
 2.0000  5.9000E-01  5.0000E-02
 2.5000  3.3000E-01  4.0000E-02
 3.0000  9.0000E-02  2.0000E-02
 pb+He  FMD   J.S. Cohen, Phys. Rev. A 62, 022512 (2000)                            
 0.0100  7.7760E+01  1.1300E+00
 0.1000  1.8200E+01  2.8000E-01
 0.2000  9.5500E+00  1.4000E-01
 0.3000  6.9000E+00  9.0000E-02
 0.4000  5.3400E+00  6.0000E-02
 0.5000  4.5600E+00  7.0000E-02
 0.6000  3.9400E+00  6.0000E-02
 0.7000  3.5400E+00  5.0000E-02
 0.8000  3.2700E+00  5.0000E-02
 0.9000  3.0500E+00  5.0000E-02
 1.0000  2.9100E+00  5.0000E-02
 1.1000  1.7600E+00  7.0000E-02
 1.2000  9.5000E-01  6.0000E-02
 1.5000  3.8000E-01  5.0000E-02
 2.0000  1.0000E-01  3.0000E-02
 2.5000  1.0000E-02  1.0000E-02
 mu+H   CC    A. Boukour et al, Hyperfine Interact. 101/102, 263 (1996)             
 0.0500  3.3600E+01
 0.1000  1.6700E+01
 0.2000  8.7000E+00
 0.3000  5.4000E+00
 0.4000  3.3600E+00
 0.5000  2.0700E+00
 0.6000  9.7000E-01
 0.7000  5.3000E-01
 0.8000  3.1000E-01
 pb+H   PSS   K. Ohtsuki et al, 21th ICPEAC (1999), p. 438                          
 0.0350  3.9900E+01
 0.0700  2.2600E+01
 0.1080  1.6300E+01
 0.1730  1.1300E+01
 0.2530  8.8000E+00
 0.3680  7.5000E+00
 pb+H   QM-DVRK. Sakimoto, Phys. Rev. A 65, 012706 (2002)                           
 0.1000  1.7800E+01
 0.1103  1.7000E+01
 0.1286  1.4800E+01
 0.1470  1.5500E+01
 0.1654  1.2300E+01
 0.1838  1.1500E+01
 0.2000  1.0900E+01
 0.2205  1.0900E+01
 0.2500  9.6000E+00
 0.2750  9.0000E+00
 0.3000  8.6000E+00
 0.3124  8.4000E+00
 0.3308  8.2000E+00
 0.3491  8.0000E+00
 0.3675  7.8000E+00
 mu+H   QM-DVRK. Sakimoto, Phys. Rev. A 66, 032506 (2002)                           
 0.1838  1.1200E+01
 0.2205  1.0100E+01
 0.2573  9.3000E+00
 0.2940  8.8000E+00
 0.3308  8.3000E+00
 0.3675  7.8800E+00
 mu+H2  NABB  G.Ya. Korenman et al, Muon Catal. Fusion 7, 179 (1992)                
 0.0100  9.8897E+01
 0.0200  5.2873E+01
 0.0300  3.7532E+01
 0.0400  2.9861E+01
 0.0500  2.5258E+01
 0.0600  2.2190E+01
 0.0700  1.9998E+01
 0.0800  1.8355E+01
 0.0900  1.7076E+01
 0.1000  1.6054E+01
 0.1100  1.5217E+01
 0.1200  1.4519E+01
 0.1300  1.3929E+01
 0.1400  1.3424E+01
 0.1500  1.2985E+01
 0.1600  1.2602E+01
 0.1700  1.2263E+01
 0.1800  1.1962E+01
 0.1900  1.1693E+01
 0.2000  1.1451E+01
 0.2100  1.1232E+01
 0.2200  1.1033E+01
 0.2300  1.0851E+01
 0.2400  1.0684E+01
 0.2500  1.0531E+01
 0.2600  1.0389E+01
 0.2700  1.0258E+01
 0.2800  1.0136E+01
 0.2900  1.0023E+01
 0.3000  9.9170E+00
 0.3100  9.8180E+00
 0.3200  9.7252E+00
 0.3300  9.6380E+00
 0.3400  9.5560E+00
 0.3500  9.4786E+00
 0.3600  9.4056E+00
 0.3700  9.3365E+00
 0.3800  9.2710E+00
 0.3900  9.2089E+00
 0.4000  9.1499E+00
 0.4100  9.0938E+00
 0.4200  9.0403E+00
 0.4300  8.9893E+00
 0.4400  8.9407E+00
 0.4500  8.8942E+00
 0.4600  8.8497E+00
 0.4700  8.8072E+00
 0.4800  8.7664E+00
 0.4900  8.7272E+00
 0.5000  8.6896E+00
 0.5100  8.6535E+00
 0.5200  8.6188E+00
 0.5300  8.5854E+00
 0.5400  8.5533E+00
 0.5500  8.5223E+00
 0.5600  8.4924E+00
 0.5700  8.4636E+00
 0.5800  8.4357E+00
 0.5900  8.4088E+00
 0.6000  8.3828E+00
 0.6000  0.0000E+00
 mu+H2  FMD   J.S. Cohen, Phys. Rev. A 59, 1160 (1999)                              
 0.0100  1.4780E+02  1.0010E+01
 0.1000  3.2800E+01  2.0100E+00
 0.2000  1.9930E+01  9.2000E-01
 0.4000  1.2720E+01  5.7000E-01
 0.6000  9.4000E+00  5.1000E-01
 0.8000  6.4300E+00  4.2000E-01
 1.0000  3.3900E+00  3.8000E-01
 1.2000  1.7700E+00  3.2000E-01
 1.6000  4.9000E-01  1.8000E-01
 2.0000  7.0000E-02  7.0000E-02
 pb+Ne  AHC   J.S. Briggs et al, J. Phys. B 32, 197 (1999)                          
 0.0100  3.0000E+00
 0.0150  2.0000E+00
 0.0200  1.5000E+00
 0.0300  1.0000E+00
 0.0500  6.0000E-01
 0.1000  3.0000E-01
 0.1500  2.0000E-01
 0.2000  1.5000E-01
 0.3000  1.0000E-01
 0.5000  7.2000E-02
 0.7000  5.7000E-02
 1.0000  4.5000E-02
 pb+Ne  NABB  G.Ya. Korenman, Nucl. Phys. A692, 145c (2001)                         
 0.0100  1.9616E+02
 0.0200  1.0034E+02
 0.0300  6.8403E+01
 0.0400  5.2433E+01
 0.0500  4.2851E+01
 0.0600  3.6463E+01
 0.0700  3.1901E+01
 0.0800  2.8479E+01
 0.0900  2.5817E+01
 0.1000  2.3688E+01
 0.1100  2.1945E+01
 0.1200  2.0494E+01
 0.1300  1.9265E+01
 0.1400  1.8212E+01
 0.1500  1.7300E+01
 0.1600  1.6501E+01
 0.1700  1.5797E+01
 0.1800  1.5170E+01
 0.1900  1.4610E+01
 0.2000  1.4106E+01
 0.2100  1.3649E+01
 0.2200  1.3235E+01
 0.2300  1.2856E+01
 0.2400  1.2509E+01
 0.2500  1.2189E+01
 0.2600  1.1895E+01
 0.2700  1.1622E+01
 0.2800  1.1368E+01
 0.2900  1.1132E+01
 0.3000  1.0912E+01
 0.3100  1.0706E+01
 0.3200  1.0513E+01
 0.3300  1.0331E+01
 0.3400  1.0160E+01
 0.3500  9.9992E+00
 0.3600  9.8471E+00
 0.3700  9.7033E+00
 0.3800  9.5670E+00
 0.3900  9.4377E+00
 0.4000  9.3148E+00
 0.4100  9.1980E+00
 0.4200  9.0867E+00
 0.4300  8.9806E+00
 0.4400  8.8793E+00
 0.4500  8.7825E+00
 0.4600  8.6899E+00
 0.4700  8.6013E+00
 0.4800  8.5163E+00
 0.4900  8.4349E+00
 0.5000  8.3566E+00
 0.5100  8.2815E+00
 0.5200  8.2092E+00
 0.5300  8.1397E+00
 0.5400  8.0727E+00
 0.5500  8.0082E+00
 0.5600  7.9460E+00
 0.5700  7.8859E+00
 0.5800  7.8280E+00
 0.5900  7.7720E+00
 0.6000  7.7178E+00
 0.6100  7.6655E+00
 0.6200  7.6148E+00
 0.6300  7.5658E+00
 0.6400  7.5182E+00
 0.6500  7.4722E+00
 0.6600  7.4275E+00
 0.6700  7.3842E+00
 0.6800  7.3421E+00
 0.6900  7.3012E+00
 0.7000  7.2616E+00
 0.7100  7.2230E+00
 0.7200  7.1855E+00
 0.7300  7.1491E+00
 0.7400  7.1136E+00
 0.7500  7.0791E+00
 0.7600  7.0454E+00
 0.7700  7.0127E+00
 0.7800  6.9808E+00
 0.7925  6.9420E+00
 0.7925  0.0000E+00
 pb+Ne  FMD   J.S. Cohen, Phys. Rev. A 62, 022512 (2000)                            
 0.0100  3.2230E+01  1.9800E+00
 0.1000  1.3820E+01  4.1000E-01
 0.2000  1.0040E+01  3.5000E-01
 0.4000  7.9900E+00  2.4000E-01
 0.6000  6.4100E+00  1.4000E-01
 0.8000  6.3800E+00  1.7000E-01
 1.0000  5.6600E+00  1.3000E-01
 1.5000  3.7100E+00  1.2000E-01
 2.0000  2.6100E+00  1.2000E-01
 3.0000  1.6600E+00  1.6000E-01
 4.0000  1.1900E+00  1.5000E-01
 6.0000  6.6000E-01  1.3000E-01
 8.0000  4.1000E-01  1.1000E-01
10.0000  2.2000E-01  8.0000E-02
12.0000  3.0000E-02  3.0000E-02
 pb+H2  FMD   J.S. Cohen, Phys. Rev. A 56, 3583 (1997)                              
 0.0100  1.6922E+02  8.9200E+00
 0.1000  4.3420E+01  1.6700E+00
 0.2000  2.8110E+01  8.9000E-01
 0.4000  1.5610E+01  5.7000E-01
 0.6000  1.1030E+01  0.0000E+00
 0.8000  7.9800E+00  4.0000E-01
 1.0000  6.2800E+00  3.7000E-01
 1.2000  4.3800E+00  3.6000E-01
 1.6000  2.1200E+00  3.3000E-01
 2.0000  1.3400E+00  2.8000E-01
 2.4000  8.5000E-01  2.3000E-01
 2.8000  2.8000E-01  1.4000E-01
 4.0000  7.0000E-02  7.0000E-02
 mu+D   FMD   J.S. Cohen, Phys. Rev. A 59, 1160 (1999)                              
 0.1000  2.0440E+01  4.0000E-01
 0.2000  1.1930E+01  1.1000E-01
 0.3000  8.9200E+00  1.1000E-01
 0.4000  7.5900E+00  1.0000E-01
 0.5000  6.3500E+00  1.0000E-01
 0.5500  4.7300E+00  1.1000E-01
 0.6000  2.1600E+00  1.0000E-01
 0.7000  1.8000E-01  4.0000E-02
 0.8000  4.0000E-02  2.0000E-02
 pb+D   FMD   J.S. Cohen, Phys. Rev. A 59, 1160 (1999)                              
 0.1000  1.8240E+01  4.3000E-01
 0.2000  1.0550E+01  1.1000E-01
 0.3000  7.8700E+00  9.0000E-02
 0.4000  6.4400E+00  8.0000E-02
 0.5000  5.4100E+00  1.0000E-01
 0.5500  2.1100E+00  1.0000E-01
 0.6000  8.0000E-02  2.0000E-02
 mu+D2  FMD   J.S. Cohen, Phys. Rev. A 59, 1160 (1999)                              
 0.0100  1.3683E+02  1.0570E+01
 0.1000  3.0250E+01  2.1700E+00
 0.2000  1.8730E+01  1.0000E+00
 0.4000  1.2300E+01  6.7000E-01
 0.6000  9.0500E+00  5.0000E-01
 0.8000  5.4400E+00  4.4000E-01
 1.0000  2.2600E+00  3.3000E-01
 1.2000  7.1000E-01  2.1000E-01
 1.6000  2.8000E-01  1.4000E-01
 pb+D2  FMD   J.S. Cohen, Phys. Rev. A 59, 1160 (1999)                              
 0.0100  1.7304E+02  8.5200E+00
 0.1000  4.0150E+01  1.4500E+00
 0.2000  2.4310E+01  6.4000E-01
 0.4000  1.4630E+01  5.1000E-01
 0.6000  1.0810E+01  4.2000E-01
 0.8000  7.2500E+00  4.1000E-01
 1.0000  4.7800E+00  3.8000E-01
 1.2000  3.3600E+00  3.6000E-01
 1.6000  1.3600E+00  2.8000E-01
 2.0000  5.7000E-01  1.9000E-01
 2.4000  2.8000E-01  1.4000E-01
 2.8000  1.4000E-01  1.0000E-01
 pb+H2+ CTMCa K. Sakimoto, J. Phys. B 37, 2255 (2004)                               
 0.0735  1.4349E+02  5.6000E-01
 0.1103  9.3230E+01  4.6000E-01
 0.1838  5.7260E+01  2.9000E-01
 0.2756  3.4840E+01  2.3000E-01
 0.3675  2.3190E+01  1.6000E-01
 0.4410  1.7380E+01  1.5000E-01
 0.5513  1.1650E+01  1.2000E-01
 0.7350  6.0900E+00  7.0000E-02
 0.9188  3.1700E+00  5.0000E-02
 1.1025  1.7800E+00  3.0000E-02
 1.4700  6.9000E-01  2.0000E-02
 1.8376  3.3000E-01  2.0000E-02
 2.2051  1.8000E-01  1.0000E-02
 2.5726  1.2000E-01  1.0000E-02
 2.9401  8.0000E-02  1.0000E-02
